Sample Name, RO-01P0
Time, 2017/07/12 05:20:08
Operator, Smith
Lamp, 255
Slit,0.0
Scan From, 850.0nm
Scan To, 390.0nm
Scan Step, 1.0nm
Sample Filter, 11
memo, 
WL(nm), Abs, T%
390.0, -0.0002, 100.05
391.0, -0.0002, 100.06
392.0, -0.0002, 100.06
393.0, -0.0003, 100.06
394.0, -0.0002, 100.05
395.0, -0.0003, 100.07
396.0, -0.0003, 100.06
397.0, -0.0002, 100.05
398.0, -0.0003, 100.07
399.0, -0.0002, 100.05
400.0, -0.0002, 100.05
401.0, -0.0003, 100.07
402.0, -0.0003, 100.06
403.0, -0.0003, 100.07
404.0, -0.0003, 100.06
405.0, -0.0003, 100.06
406.0, -0.0003, 100.08
407.0, -0.0004, 100.08
408.0, -0.0004, 100.09
409.0, -0.0003, 100.07
410.0, -0.0003, 100.08
411.0, -0.0003, 100.07
412.0, -0.0003, 100.07
413.0, -0.0003, 100.06
414.0, -0.0002, 100.05
415.0, -0.0002, 100.05
416.0, -0.0003, 100.07
417.0, -0.0003, 100.06
418.0, -0.0003, 100.06
419.0, -0.0002, 100.04
420.0, -0.0002, 100.05
421.0, -0.0002, 100.04
422.0, -0.0001, 100.03
423.0, -0.0002, 100.05
424.0, -0.0002, 100.04
425.0, -0.0002, 100.05
426.0, -0.0002, 100.04
427.0, -0.0002, 100.05
428.0, -0.0002, 100.05
429.0, -0.0002, 100.05
430.0, -0.0003, 100.06
431.0, -0.0003, 100.06
432.0, -0.0003, 100.06
433.0, -0.0003, 100.06
434.0, -0.0004, 100.09
435.0, -0.0004, 100.08
436.0, -0.0003, 100.08
437.0, -0.0003, 100.07
438.0, -0.0002, 100.05
439.0, -0.0002, 100.05
440.0, -0.0002, 100.05
441.0, -0.0001, 100.03
442.0, -0.0002, 100.04
443.0, -0.0002, 100.04
444.0, -0.0002, 100.04
445.0, -0.0001, 100.03
446.0, -0.0001, 100.03
447.0, -0.0002, 100.06
448.0, -0.0002, 100.04
449.0, -0.0003, 100.07
450.0, -0.0002, 100.05
451.0, -0.0002, 100.05
452.0, -0.0002, 100.04
453.0, -0.0003, 100.06
454.0, -0.0002, 100.05
455.0, -0.0003, 100.06
456.0, -0.0002, 100.05
457.0, -0.0002, 100.05
458.0, -0.0002, 100.05
459.0, -0.0001, 100.03
460.0, -0.0002, 100.06
461.0, -0.0002, 100.05
462.0, -0.0002, 100.05
463.0, -0.0003, 100.06
464.0, -0.0002, 100.05
465.0, -0.0002, 100.06
466.0, -0.0002, 100.04
467.0, -0.0003, 100.06
468.0, -0.0002, 100.04
469.0, -0.0001, 100.02
470.0, -0.0002, 100.04
471.0, -0.0001, 100.03
472.0, -0.0001, 100.03
473.0, -0.0002, 100.04
474.0, -0.0001, 100.03
475.0, -0.0002, 100.04
476.0, -0.0002, 100.04
477.0, -0.0002, 100.04
478.0, -0.0002, 100.04
479.0, -0.0002, 100.04
480.0, -0.0002, 100.04
481.0, -0.0001, 100.03
482.0, -0.0001, 100.03
483.0, -0.0002, 100.04
484.0, -0.0002, 100.04
485.0, -0.0002, 100.05
486.0, -0.0002, 100.04
487.0, -0.0002, 100.04
488.0, -0.0001, 100.03
489.0, -0.0001, 100.03
490.0, -0.0002, 100.04
491.0, -0.0002, 100.04
492.0, -0.0001, 100.03
493.0, -0.0002, 100.03
494.0, -0.0002, 100.05
495.0, -0.0002, 100.04
496.0, -0.0002, 100.04
497.0, -0.0001, 100.03
498.0, -0.0001, 100.02
499.0, -0.0002, 100.04
500.0, -0.0001, 100.02
501.0, -0.0002, 100.04
502.0, -0.0001, 100.03
503.0, -0.0002, 100.04
504.0, -0.0001, 100.03
505.0, -0.0002, 100.03
506.0, -0.0001, 100.01
507.0, -0.0001, 100.02
508.0, -0.0001, 100.03
509.0, -0.0001, 100.03
510.0, -0.0001, 100.02
511.0, -0.0001, 100.03
512.0, -0.0001, 100.02
513.0, -0.0000, 100.01
514.0, -0.0001, 100.02
515.0, -0.0000, 100.01
516.0, -0.0001, 100.03
517.0, -0.0001, 100.02
518.0, -0.0000, 100.01
519.0, -0.0001, 100.02
520.0, -0.0001, 100.03
521.0, -0.0001, 100.03
522.0, -0.0001, 100.03
523.0, -0.0001, 100.02
524.0, -0.0001, 100.03
525.0, -0.0001, 100.03
526.0, -0.0001, 100.03
527.0, -0.0001, 100.03
528.0, -0.0002, 100.04
529.0, -0.0001, 100.03
530.0, -0.0001, 100.02
531.0, -0.0002, 100.04
532.0, -0.0002, 100.05
533.0, -0.0002, 100.04
534.0, -0.0002, 100.05
535.0, -0.0001, 100.02
536.0, -0.0002, 100.04
537.0, -0.0001, 100.02
538.0, 0.0000, 100.00
539.0, -0.0001, 100.03
540.0, -0.0001, 100.01
541.0, -0.0001, 100.03
542.0, -0.0001, 100.02
543.0, -0.0001, 100.02
544.0, -0.0002, 100.04
545.0, -0.0001, 100.02
546.0, -0.0002, 100.04
547.0, -0.0001, 100.02
548.0, -0.0001, 100.01
549.0, -0.0000, 100.01
550.0, -0.0001, 100.01
551.0, -0.0001, 100.03
552.0, -0.0001, 100.03
553.0, -0.0001, 100.02
554.0, -0.0001, 100.03
555.0, -0.0001, 100.03
556.0, -0.0001, 100.03
557.0, -0.0001, 100.03
558.0, -0.0001, 100.03
559.0, -0.0001, 100.03
560.0, -0.0001, 100.03
561.0, -0.0001, 100.03
562.0, -0.0001, 100.02
563.0, -0.0001, 100.02
564.0, -0.0001, 100.02
565.0, -0.0001, 100.02
566.0, -0.0001, 100.01
567.0, -0.0001, 100.01
568.0, -0.0001, 100.02
569.0, -0.0001, 100.03
570.0, -0.0001, 100.03
571.0, -0.0001, 100.03
572.0, -0.0001, 100.03
573.0, -0.0003, 100.06
574.0, -0.0001, 100.03
575.0, -0.0002, 100.04
576.0, -0.0001, 100.03
577.0, -0.0001, 100.02
578.0, -0.0001, 100.01
579.0, -0.0001, 100.03
580.0, -0.0001, 100.03
581.0, -0.0001, 100.01
582.0, -0.0001, 100.03
583.0, -0.0001, 100.03
584.0, -0.0001, 100.02
585.0, -0.0001, 100.02
586.0, 0.0002, 99.95
587.0, 0.0002, 99.96
588.0, 0.0002, 99.96
589.0, 0.0002, 99.95
590.0, 0.0002, 99.96
591.0, 0.0002, 99.94
592.0, 0.0002, 99.96
593.0, 0.0002, 99.95
594.0, 0.0003, 99.94
595.0, 0.0002, 99.94
596.0, 0.0003, 99.94
597.0, 0.0001, 99.98
598.0, 0.0001, 99.97
599.0, 0.0002, 99.96
600.0, 0.0001, 99.97
601.0, 0.0002, 99.96
602.0, 0.0001, 99.97
603.0, 0.0001, 99.98
604.0, 0.0002, 99.96
605.0, 0.0002, 99.96
606.0, 0.0002, 99.94
607.0, 0.0003, 99.94
608.0, 0.0002, 99.95
609.0, 0.0002, 99.95
610.0, 0.0002, 99.95
611.0, 0.0002, 99.95
612.0, 0.0002, 99.95
613.0, 0.0001, 99.97
614.0, 0.0002, 99.96
615.0, 0.0003, 99.94
616.0, 0.0002, 99.95
617.0, 0.0002, 99.94
618.0, 0.0002, 99.96
619.0, 0.0002, 99.95
620.0, 0.0002, 99.96
621.0, 0.0002, 99.96
622.0, 0.0002, 99.95
623.0, 0.0003, 99.94
624.0, 0.0003, 99.94
625.0, 0.0003, 99.94
626.0, 0.0003, 99.94
627.0, 0.0003, 99.94
628.0, 0.0002, 99.95
629.0, 0.0003, 99.94
630.0, 0.0002, 99.95
631.0, 0.0002, 99.95
632.0, 0.0003, 99.94
633.0, 0.0003, 99.93
634.0, 0.0002, 99.94
635.0, 0.0002, 99.94
636.0, 0.0001, 99.97
637.0, 0.0002, 99.96
638.0, 0.0002, 99.96
639.0, 0.0002, 99.96
640.0, 0.0002, 99.96
641.0, 0.0002, 99.95
642.0, 0.0002, 99.95
643.0, 0.0002, 99.96
644.0, 0.0002, 99.95
645.0, 0.0003, 99.94
646.0, 0.0002, 99.96
647.0, 0.0001, 99.97
648.0, 0.0001, 99.98
649.0, 0.0001, 99.98
650.0, 0.0001, 99.98
651.0, 0.0001, 99.98
652.0, 0.0001, 99.98
653.0, 0.0001, 99.97
654.0, 0.0001, 99.97
655.0, 0.0001, 99.97
656.0, 0.0001, 99.97
657.0, 0.0002, 99.96
658.0, 0.0002, 99.96
659.0, 0.0002, 99.96
660.0, 0.0001, 99.97
661.0, 0.0001, 99.97
662.0, 0.0002, 99.95
663.0, 0.0002, 99.96
664.0, 0.0002, 99.95
665.0, 0.0001, 99.98
666.0, 0.0001, 99.97
667.0, 0.0001, 99.98
668.0, 0.0001, 99.97
669.0, 0.0001, 99.97
670.0, 0.0001, 99.97
671.0, 0.0002, 99.95
672.0, 0.0002, 99.96
673.0, 0.0002, 99.95
674.0, 0.0002, 99.96
675.0, 0.0002, 99.95
676.0, 0.0002, 99.95
677.0, 0.0003, 99.93
678.0, 0.0003, 99.94
679.0, 0.0004, 99.91
680.0, 0.0003, 99.93
681.0, 0.0002, 99.95
682.0, 0.0002, 99.96
683.0, 0.0002, 99.96
684.0, 0.0002, 99.96
685.0, 0.0002, 99.96
686.0, 0.0001, 99.97
687.0, 0.0002, 99.96
688.0, 0.0001, 99.97
689.0, 0.0002, 99.96
690.0, 0.0001, 99.97
691.0, 0.0002, 99.96
692.0, 0.0002, 99.96
693.0, 0.0002, 99.96
694.0, 0.0002, 99.95
695.0, 0.0002, 99.95
696.0, 0.0002, 99.96
697.0, 0.0002, 99.95
698.0, 0.0002, 99.95
699.0, 0.0002, 99.96
700.0, 0.0001, 99.97
701.0, 0.0002, 99.96
702.0, 0.0002, 99.95
703.0, 0.0002, 99.94
704.0, 0.0002, 99.94
705.0, 0.0002, 99.95
706.0, 0.0002, 99.95
707.0, 0.0002, 99.95
708.0, 0.0002, 99.95
709.0, 0.0002, 99.95
710.0, 0.0002, 99.96
711.0, 0.0002, 99.96
712.0, 0.0001, 99.97
713.0, 0.0001, 99.97
714.0, 0.0001, 99.97
715.0, 0.0002, 99.95
716.0, 0.0002, 99.95
717.0, 0.0002, 99.95
718.0, 0.0002, 99.96
719.0, 0.0002, 99.96
720.0, 0.0002, 99.96
721.0, 0.0001, 99.98
722.0, 0.0001, 99.98
723.0, 0.0002, 99.95
724.0, 0.0002, 99.95
725.0, 0.0002, 99.95
726.0, 0.0002, 99.96
727.0, 0.0003, 99.93
728.0, 0.0003, 99.93
729.0, 0.0004, 99.92
730.0, 0.0003, 99.93
731.0, 0.0003, 99.93
732.0, 0.0003, 99.93
733.0, 0.0004, 99.92
734.0, 0.0003, 99.92
735.0, 0.0004, 99.91
736.0, 0.0004, 99.91
737.0, 0.0005, 99.89
738.0, 0.0004, 99.90
739.0, 0.0004, 99.90
740.0, 0.0004, 99.91
741.0, 0.0003, 99.92
742.0, 0.0003, 99.93
743.0, 0.0003, 99.94
744.0, 0.0003, 99.93
745.0, 0.0003, 99.94
746.0, 0.0003, 99.93
747.0, 0.0003, 99.93
748.0, 0.0003, 99.93
749.0, 0.0003, 99.93
750.0, 0.0004, 99.92
751.0, 0.0003, 99.92
752.0, 0.0004, 99.91
753.0, 0.0003, 99.93
754.0, 0.0004, 99.91
755.0, 0.0003, 99.94
756.0, 0.0002, 99.94
757.0, 0.0003, 99.94
758.0, 0.0002, 99.95
759.0, 0.0003, 99.94
760.0, 0.0003, 99.93
761.0, 0.0002, 99.95
762.0, 0.0002, 99.95
763.0, 0.0002, 99.95
764.0, 0.0003, 99.94
765.0, 0.0003, 99.94
766.0, 0.0003, 99.94
767.0, 0.0003, 99.94
768.0, 0.0002, 99.94
769.0, 0.0002, 99.96
770.0, 0.0002, 99.95
771.0, 0.0001, 99.97
772.0, 0.0001, 99.97
773.0, 0.0001, 99.97
774.0, 0.0001, 99.98
775.0, 0.0001, 99.97
776.0, 0.0001, 99.97
777.0, 0.0002, 99.95
778.0, 0.0002, 99.96
779.0, 0.0003, 99.94
780.0, 0.0003, 99.94
781.0, 0.0003, 99.94
782.0, 0.0002, 99.96
783.0, 0.0001, 99.97
784.0, 0.0002, 99.96
785.0, 0.0001, 99.97
786.0, 0.0001, 99.97
787.0, 0.0001, 99.97
788.0, 0.0001, 99.98
789.0, 0.0001, 99.98
790.0, 0.0001, 99.98
791.0, 0.0001, 99.97
792.0, 0.0001, 99.97
793.0, 0.0001, 99.98
794.0, 0.0001, 99.97
795.0, 0.0001, 99.97
796.0, 0.0001, 99.98
797.0, 0.0001, 99.97
798.0, 0.0001, 99.97
799.0, 0.0002, 99.96
800.0, 0.0001, 99.97
801.0, 0.0002, 99.95
802.0, 0.0002, 99.96
803.0, 0.0002, 99.95
804.0, 0.0002, 99.96
805.0, 0.0002, 99.95
806.0, 0.0002, 99.96
807.0, 0.0002, 99.95
808.0, 0.0002, 99.95
809.0, 0.0002, 99.95
810.0, 0.0002, 99.95
811.0, 0.0002, 99.94
812.0, 0.0002, 99.94
813.0, 0.0002, 99.95
814.0, 0.0002, 99.95
815.0, 0.0002, 99.96
816.0, 0.0001, 99.97
817.0, 0.0002, 99.96
818.0, 0.0001, 99.97
819.0, 0.0002, 99.96
820.0, 0.0002, 99.96
821.0, 0.0002, 99.95
822.0, 0.0002, 99.95
823.0, 0.0002, 99.96
824.0, 0.0001, 99.97
825.0, 0.0002, 99.96
826.0, 0.0002, 99.96
827.0, 0.0001, 99.97
828.0, 0.0003, 99.94
829.0, 0.0002, 99.96
830.0, 0.0002, 99.96
831.0, 0.0002, 99.95
832.0, 0.0002, 99.97
833.0, 0.0002, 99.97
834.0, 0.0002, 99.95
835.0, 0.0003, 99.93
836.0, 0.0004, 99.91
837.0, 0.0003, 99.92
838.0, 0.0003, 99.92
839.0, 0.0003, 99.92
840.0, 0.0003, 99.93
841.0, 0.0003, 99.93
842.0, 0.0003, 99.93
843.0, 0.0003, 99.93
844.0, 0.0003, 99.93
845.0, 0.0003, 99.93
846.0, 0.0003, 99.93
847.0, 0.0002, 99.95
848.0, 0.0003, 99.94
849.0, 0.0003, 99.93
850.0, 0.0003, 99.93
