Sample Name, TP-05P0
Time, 2017/07/12 03:11:08
Operator, Smith
Lamp, 255
Slit,0.0
Scan From, 850.0nm
Scan To, 390.0nm
Scan Step, 1.0nm
Sample Filter, 11
memo, 
WL(nm), Abs, T%
390.0, -0.0008, 100.18
391.0, -0.0007, 100.16
392.0, -0.0008, 100.17
393.0, -0.0008, 100.18
394.0, -0.0009, 100.21
395.0, -0.0009, 100.20
396.0, -0.0008, 100.19
397.0, -0.0009, 100.20
398.0, -0.0010, 100.23
399.0, -0.0009, 100.21
400.0, -0.0009, 100.21
401.0, -0.0010, 100.23
402.0, -0.0009, 100.21
403.0, -0.0008, 100.19
404.0, -0.0010, 100.22
405.0, -0.0010, 100.23
406.0, -0.0010, 100.24
407.0, -0.0010, 100.23
408.0, -0.0010, 100.23
409.0, -0.0009, 100.21
410.0, -0.0010, 100.23
411.0, -0.0009, 100.21
412.0, -0.0009, 100.20
413.0, -0.0009, 100.21
414.0, -0.0010, 100.23
415.0, -0.0010, 100.23
416.0, -0.0010, 100.23
417.0, -0.0010, 100.24
418.0, -0.0009, 100.22
419.0, -0.0010, 100.23
420.0, -0.0010, 100.23
421.0, -0.0010, 100.23
422.0, -0.0010, 100.23
423.0, -0.0010, 100.23
424.0, -0.0010, 100.23
425.0, -0.0010, 100.23
426.0, -0.0009, 100.22
427.0, -0.0010, 100.22
428.0, -0.0010, 100.22
429.0, -0.0009, 100.21
430.0, -0.0009, 100.20
431.0, -0.0009, 100.21
432.0, -0.0009, 100.21
433.0, -0.0008, 100.19
434.0, -0.0009, 100.21
435.0, -0.0009, 100.21
436.0, -0.0009, 100.20
437.0, -0.0009, 100.21
438.0, -0.0008, 100.20
439.0, -0.0009, 100.20
440.0, -0.0009, 100.21
441.0, -0.0009, 100.20
442.0, -0.0009, 100.20
443.0, -0.0008, 100.18
444.0, -0.0008, 100.19
445.0, -0.0007, 100.17
446.0, -0.0007, 100.15
447.0, -0.0007, 100.17
448.0, -0.0007, 100.17
449.0, -0.0008, 100.18
450.0, -0.0008, 100.19
451.0, -0.0007, 100.17
452.0, -0.0007, 100.15
453.0, -0.0007, 100.15
454.0, -0.0007, 100.15
455.0, -0.0006, 100.15
456.0, -0.0007, 100.17
457.0, -0.0007, 100.16
458.0, -0.0007, 100.15
459.0, -0.0007, 100.16
460.0, -0.0007, 100.15
461.0, -0.0007, 100.15
462.0, -0.0006, 100.14
463.0, -0.0007, 100.15
464.0, -0.0007, 100.15
465.0, -0.0006, 100.13
466.0, -0.0006, 100.14
467.0, -0.0006, 100.14
468.0, -0.0006, 100.15
469.0, -0.0006, 100.15
470.0, -0.0006, 100.13
471.0, -0.0006, 100.14
472.0, -0.0006, 100.15
473.0, -0.0006, 100.15
474.0, -0.0006, 100.14
475.0, -0.0006, 100.14
476.0, -0.0006, 100.14
477.0, -0.0006, 100.14
478.0, -0.0006, 100.15
479.0, -0.0006, 100.14
480.0, -0.0006, 100.14
481.0, -0.0006, 100.14
482.0, -0.0005, 100.12
483.0, -0.0006, 100.14
484.0, -0.0006, 100.13
485.0, -0.0005, 100.12
486.0, -0.0006, 100.13
487.0, -0.0006, 100.13
488.0, -0.0005, 100.12
489.0, -0.0005, 100.11
490.0, -0.0005, 100.12
491.0, -0.0005, 100.12
492.0, -0.0005, 100.12
493.0, -0.0006, 100.14
494.0, -0.0006, 100.13
495.0, -0.0006, 100.13
496.0, -0.0006, 100.14
497.0, -0.0006, 100.14
498.0, -0.0006, 100.14
499.0, -0.0006, 100.14
500.0, -0.0006, 100.14
501.0, -0.0005, 100.13
502.0, -0.0006, 100.13
503.0, -0.0006, 100.14
504.0, -0.0006, 100.14
505.0, -0.0005, 100.12
506.0, -0.0006, 100.13
507.0, -0.0005, 100.12
508.0, -0.0005, 100.12
509.0, -0.0005, 100.11
510.0, -0.0006, 100.13
511.0, -0.0005, 100.12
512.0, -0.0005, 100.12
513.0, -0.0006, 100.13
514.0, -0.0006, 100.14
515.0, -0.0006, 100.13
516.0, -0.0005, 100.12
517.0, -0.0005, 100.12
518.0, -0.0005, 100.12
519.0, -0.0005, 100.11
520.0, -0.0005, 100.12
521.0, -0.0005, 100.12
522.0, -0.0006, 100.13
523.0, -0.0005, 100.12
524.0, -0.0005, 100.12
525.0, -0.0005, 100.12
526.0, -0.0006, 100.14
527.0, -0.0006, 100.14
528.0, -0.0006, 100.14
529.0, -0.0005, 100.11
530.0, -0.0006, 100.13
531.0, -0.0005, 100.13
532.0, -0.0006, 100.13
533.0, -0.0006, 100.13
534.0, -0.0006, 100.13
535.0, -0.0006, 100.13
536.0, -0.0006, 100.13
537.0, -0.0006, 100.14
538.0, -0.0006, 100.14
539.0, -0.0006, 100.13
540.0, -0.0005, 100.13
541.0, -0.0005, 100.12
542.0, -0.0005, 100.12
543.0, -0.0005, 100.13
544.0, -0.0006, 100.14
545.0, -0.0005, 100.12
546.0, -0.0005, 100.12
547.0, -0.0006, 100.14
548.0, -0.0006, 100.13
549.0, -0.0005, 100.12
550.0, -0.0005, 100.11
551.0, -0.0006, 100.13
552.0, -0.0005, 100.11
553.0, -0.0005, 100.11
554.0, -0.0004, 100.10
555.0, -0.0004, 100.10
556.0, -0.0005, 100.12
557.0, -0.0005, 100.12
558.0, -0.0006, 100.13
559.0, -0.0006, 100.14
560.0, -0.0005, 100.13
561.0, -0.0006, 100.13
562.0, -0.0005, 100.12
563.0, -0.0005, 100.13
564.0, -0.0005, 100.12
565.0, -0.0005, 100.12
566.0, -0.0004, 100.10
567.0, -0.0005, 100.12
568.0, -0.0005, 100.11
569.0, -0.0005, 100.11
570.0, -0.0003, 100.07
571.0, -0.0003, 100.08
572.0, -0.0004, 100.08
573.0, -0.0004, 100.10
574.0, -0.0004, 100.10
575.0, -0.0005, 100.11
576.0, -0.0004, 100.09
577.0, -0.0004, 100.10
578.0, -0.0004, 100.09
579.0, -0.0004, 100.09
580.0, -0.0004, 100.09
581.0, -0.0005, 100.11
582.0, -0.0005, 100.11
583.0, -0.0004, 100.10
584.0, -0.0005, 100.11
585.0, -0.0004, 100.10
586.0, -0.0005, 100.11
587.0, -0.0005, 100.11
588.0, -0.0005, 100.12
589.0, -0.0006, 100.13
590.0, -0.0005, 100.10
591.0, -0.0004, 100.09
592.0, -0.0005, 100.10
593.0, -0.0005, 100.11
594.0, -0.0003, 100.08
595.0, -0.0005, 100.11
596.0, -0.0005, 100.11
597.0, -0.0005, 100.11
598.0, -0.0005, 100.12
599.0, -0.0004, 100.09
600.0, -0.0005, 100.12
601.0, -0.0005, 100.11
602.0, -0.0004, 100.10
603.0, -0.0004, 100.10
604.0, -0.0004, 100.09
605.0, -0.0004, 100.09
606.0, -0.0004, 100.10
607.0, -0.0005, 100.11
608.0, -0.0004, 100.09
609.0, -0.0004, 100.10
610.0, -0.0004, 100.10
611.0, -0.0004, 100.09
612.0, -0.0003, 100.07
613.0, -0.0003, 100.07
614.0, -0.0003, 100.07
615.0, -0.0003, 100.07
616.0, -0.0003, 100.08
617.0, -0.0003, 100.08
618.0, -0.0004, 100.08
619.0, -0.0004, 100.09
620.0, -0.0003, 100.08
621.0, -0.0003, 100.08
622.0, -0.0003, 100.07
623.0, -0.0003, 100.08
624.0, -0.0004, 100.08
625.0, -0.0004, 100.08
626.0, -0.0004, 100.10
627.0, -0.0004, 100.09
628.0, -0.0004, 100.09
629.0, -0.0004, 100.10
630.0, -0.0004, 100.09
631.0, -0.0003, 100.07
632.0, -0.0003, 100.07
633.0, -0.0003, 100.08
634.0, -0.0003, 100.07
635.0, -0.0003, 100.08
636.0, -0.0003, 100.07
637.0, -0.0003, 100.07
638.0, -0.0003, 100.07
639.0, -0.0003, 100.08
640.0, -0.0003, 100.07
641.0, -0.0002, 100.05
642.0, -0.0002, 100.06
643.0, -0.0002, 100.05
644.0, -0.0002, 100.05
645.0, -0.0002, 100.05
646.0, -0.0002, 100.05
647.0, -0.0002, 100.04
648.0, -0.0002, 100.06
649.0, -0.0002, 100.05
650.0, -0.0003, 100.07
651.0, -0.0003, 100.08
652.0, -0.0003, 100.07
653.0, -0.0003, 100.06
654.0, -0.0003, 100.06
655.0, -0.0003, 100.07
656.0, -0.0003, 100.07
657.0, -0.0003, 100.07
658.0, -0.0003, 100.07
659.0, -0.0003, 100.07
660.0, -0.0003, 100.07
661.0, -0.0003, 100.07
662.0, -0.0003, 100.06
663.0, -0.0002, 100.06
664.0, -0.0002, 100.04
665.0, -0.0001, 100.03
666.0, -0.0002, 100.04
667.0, -0.0001, 100.02
668.0, -0.0001, 100.02
669.0, -0.0001, 100.03
670.0, -0.0001, 100.03
671.0, -0.0002, 100.04
672.0, -0.0001, 100.02
673.0, -0.0001, 100.02
674.0, -0.0002, 100.04
675.0, -0.0002, 100.04
676.0, -0.0002, 100.04
677.0, -0.0002, 100.04
678.0, -0.0002, 100.05
679.0, -0.0002, 100.05
680.0, -0.0002, 100.04
681.0, -0.0002, 100.05
682.0, -0.0002, 100.05
683.0, -0.0002, 100.04
684.0, -0.0001, 100.03
685.0, -0.0001, 100.03
686.0, -0.0001, 100.03
687.0, -0.0001, 100.02
688.0, -0.0001, 100.02
689.0, -0.0000, 100.01
690.0, -0.0001, 100.01
691.0, -0.0000, 100.01
692.0, -0.0001, 100.02
693.0, -0.0000, 100.01
694.0, -0.0000, 100.01
695.0, 0.0000, 100.00
696.0, -0.0000, 100.01
697.0, -0.0000, 100.01
698.0, -0.0000, 100.01
699.0, -0.0000, 100.01
700.0, -0.0000, 100.01
701.0, -0.0000, 100.01
702.0, -0.0000, 100.01
703.0, 0.0000, 99.99
704.0, 0.0000, 99.99
705.0, 0.0001, 99.98
706.0, 0.0001, 99.99
707.0, 0.0001, 99.99
708.0, 0.0000, 100.00
709.0, -0.0000, 100.00
710.0, 0.0000, 99.99
711.0, 0.0000, 99.99
712.0, 0.0000, 99.99
713.0, 0.0001, 99.99
714.0, -0.0000, 100.01
715.0, 0.0000, 100.00
716.0, -0.0001, 100.01
717.0, -0.0000, 100.01
718.0, -0.0001, 100.01
719.0, 0.0000, 100.00
720.0, 0.0001, 99.98
721.0, 0.0001, 99.98
722.0, 0.0000, 99.99
723.0, 0.0001, 99.98
724.0, 0.0001, 99.98
725.0, 0.0000, 99.99
726.0, 0.0001, 99.98
727.0, 0.0001, 99.98
728.0, 0.0000, 100.00
729.0, 0.0001, 99.99
730.0, 0.0001, 99.98
731.0, 0.0001, 99.98
732.0, 0.0001, 99.99
733.0, 0.0000, 99.99
734.0, 0.0001, 99.97
735.0, 0.0001, 99.98
736.0, 0.0001, 99.98
737.0, 0.0001, 99.98
738.0, 0.0002, 99.96
739.0, 0.0001, 99.97
740.0, 0.0001, 99.98
741.0, 0.0001, 99.98
742.0, 0.0001, 99.98
743.0, 0.0001, 99.97
744.0, 0.0001, 99.97
745.0, 0.0001, 99.98
746.0, 0.0001, 99.99
747.0, 0.0001, 99.98
748.0, 0.0000, 99.99
749.0, 0.0001, 99.99
750.0, 0.0001, 99.99
751.0, 0.0000, 99.99
752.0, 0.0000, 100.00
753.0, 0.0000, 100.00
754.0, 0.0000, 100.00
755.0, 0.0000, 99.99
756.0, 0.0000, 99.99
757.0, 0.0001, 99.99
758.0, 0.0000, 99.99
759.0, 0.0000, 100.00
760.0, 0.0000, 100.00
761.0, 0.0000, 100.00
762.0, 0.0000, 100.00
763.0, 0.0000, 99.99
764.0, 0.0000, 100.00
765.0, -0.0000, 100.00
766.0, -0.0000, 100.00
767.0, -0.0000, 100.01
768.0, -0.0001, 100.02
769.0, -0.0000, 100.00
770.0, -0.0001, 100.02
771.0, -0.0000, 100.00
772.0, -0.0000, 100.01
773.0, -0.0001, 100.01
774.0, 0.0000, 100.00
775.0, -0.0001, 100.02
776.0, -0.0001, 100.03
777.0, -0.0001, 100.02
778.0, -0.0001, 100.02
779.0, -0.0001, 100.02
780.0, -0.0001, 100.03
781.0, -0.0001, 100.02
782.0, -0.0001, 100.02
783.0, -0.0001, 100.02
784.0, -0.0001, 100.02
785.0, -0.0002, 100.04
786.0, -0.0001, 100.03
787.0, -0.0002, 100.04
788.0, -0.0001, 100.03
789.0, -0.0002, 100.04
790.0, -0.0002, 100.05
791.0, -0.0001, 100.03
792.0, -0.0001, 100.03
793.0, -0.0001, 100.03
794.0, -0.0001, 100.03
795.0, -0.0001, 100.02
796.0, -0.0000, 100.01
797.0, -0.0001, 100.02
798.0, -0.0001, 100.02
799.0, -0.0001, 100.03
800.0, -0.0001, 100.03
801.0, -0.0002, 100.05
802.0, -0.0002, 100.04
803.0, -0.0001, 100.03
804.0, -0.0002, 100.04
805.0, -0.0002, 100.05
806.0, -0.0002, 100.04
807.0, -0.0002, 100.04
808.0, -0.0002, 100.04
809.0, -0.0002, 100.05
810.0, -0.0002, 100.04
811.0, -0.0002, 100.05
812.0, -0.0002, 100.04
813.0, -0.0002, 100.05
814.0, -0.0002, 100.05
815.0, -0.0003, 100.07
816.0, -0.0002, 100.04
817.0, -0.0001, 100.02
818.0, -0.0001, 100.03
819.0, -0.0001, 100.03
820.0, -0.0002, 100.04
821.0, -0.0001, 100.03
822.0, -0.0001, 100.03
823.0, -0.0002, 100.03
824.0, -0.0002, 100.04
825.0, -0.0002, 100.04
826.0, -0.0002, 100.04
827.0, -0.0002, 100.05
828.0, -0.0002, 100.04
829.0, -0.0002, 100.04
830.0, -0.0001, 100.03
831.0, -0.0002, 100.04
832.0, -0.0001, 100.01
833.0, -0.0001, 100.02
834.0, -0.0001, 100.02
835.0, -0.0002, 100.04
836.0, -0.0001, 100.03
837.0, -0.0001, 100.03
838.0, -0.0001, 100.03
839.0, -0.0001, 100.02
840.0, -0.0001, 100.03
841.0, -0.0001, 100.03
842.0, -0.0001, 100.03
843.0, -0.0000, 100.01
844.0, -0.0000, 100.01
845.0, -0.0001, 100.02
846.0, -0.0002, 100.03
847.0, -0.0001, 100.02
848.0, -0.0002, 100.04
849.0, -0.0002, 100.04
850.0, -0.0003, 100.08
